File: data/245C_4L_1.csv
245C 4L Test 1, ,   ,Specimen slipped during test

April-01-19,2:20:49 PM

(e.g.) Strength test for 0.5 inch diameter specimen without anealling.

01/04/2019,2:20:49 PM
Deflection (in),Force (lbf),Strain0,Strain1,Strain2,Strain3,Strain4,Strain5
  9.54342e+06,         6.258449,        -0.813403,         8.716165, -0.009503,         0.000554, -0.003988,         0.010611
  9.54342e+06,         0.233718,        -0.812754,         8.715192, -0.009503,         0.000554, -0.003988,         0.010611
  9.54342e+06,         1.272465,        -0.812754,         8.714868, -0.009503,         0.000554, -0.003988,         0.010935
  9.54342e+06,         1.895713,        -0.812754,         8.726223, -0.009503,         0.000878, -0.003339,         0.010935
  9.54342e+06,         1.895713,        -0.812430,         8.714868, -0.009179,         0.000230, -0.003663,         0.010611
  9.54342e+06,        34.3046,        -0.812754,         8.727845, -0.009503,         0.000878, -0.003339,         0.010935
  9.54342e+06,       176.197,        -0.812430,         8.727845, -0.009179,         0.000554, -0.003663,         0.011260
  9.54342e+06,       316.428,        -0.812754,         8.727845, -0.008854,         0.000878, -0.003988,         0.010935
  9.54342e+06,       334.918,        -0.812430,         8.727845, -0.009503,         0.000230, -0.003663,         0.010935
  9.54342e+06,       315.805,        -0.813079,         8.716165, -0.009503,         0.000554, -0.003663,         0.010286
  9.54342e+06,       289.005,        -0.812430,         8.728494, -0.009503,         0.000554, -0.003663,         0.011260
  9.54342e+06,       266.361,        -0.812754,         8.727845, -0.008854,         0.000878, -0.003663,         0.010935
  9.54342e+06,       248.91,        -0.812754,         8.715841, -0.009503,         0.000878, -0.003663,         0.010611
  9.54342e+06,       234.99,        -0.813079,         8.726872, -0.009503,         0.000878, -0.003339,         0.011260
  9.54342e+06,       225.226,        -0.813079,         8.715192, -0.009179,         0.000878, -0.003663,         0.010611
  9.54342e+06,       217.747,        -0.812754,         8.727196, -0.009179,         0.000878, -0.003339,         0.010935
  9.54342e+06,       211.307,        -0.812754,         8.714543, -0.009503,         0.000878, -0.003988,         0.010611
  9.54342e+06,       205.282,        -0.812754,         8.726872, -0.009503,         0.000878, -0.003339,         0.010611
  9.54342e+06,       199.465,        -0.813403,         8.714543, -0.009179,         0.000878, -0.003988,         0.010611
  9.54342e+06,       194.064,        -0.813079,         8.721681, -0.009503,         0.000554, -0.003663,         0.010935
  9.54342e+06,       189.286,        -0.812754,         8.726223, -0.009503,         0.000554, -0.003663,         0.010611
  9.54342e+06,       183.884,        -0.812754,         8.715841, -0.009503,         0.000878, -0.003663,         0.010935
  9.54342e+06,       178.898,        -0.812430,         8.726872, -0.009179,         0.000554, -0.003339,         0.011260
  9.54342e+06,       174.328,        -0.812754,         8.717139, -0.009179,         0.000554, -0.003663,         0.010611
        0.006666,       169.549,        -0.812754,         8.726872, -0.009179,         0.000554, -0.003663,         0.010611
        0.019998,       163.94,        -0.813079,         8.729143, -0.009503,         0.000878, -0.003663,         0.010611
        0.033330,       158.746,        -0.812754,         8.717788, -0.008854,         0.000554, -0.003663,         0.010286
        0.044440,       154.176,        -0.812754,         8.715516, -0.009179,         0.000230, -0.003339,         0.010611
        0.059994,       148.982,        -0.812430,         8.716490, -0.009179,         0.000878, -0.003663,         0.010611
        0.073326,       144.204,        -0.812754,         8.728494, -0.009179,         0.000878, -0.003988,         0.010935
        0.086658,       138.387,        -0.813079,         8.716165, -0.009179,         0.000230, -0.003339,         0.010286
        0.102212,       132.778,        -0.812430,         8.726872, -0.009503,         0.000878, -0.003663,         0.010611
        0.119988,       129.246,        -0.812754,         8.726872, -0.008854,         0.000554, -0.003663,         0.010935
        0.137764,       123.845,        -0.812754,         8.727196, -0.008854,         0.000230, -0.003663,         0.010935
        0.155540,       117.612,        -0.812430,         8.726547, -0.009503,         0.000554, -0.003663,         0.010611
        0.173316,       110.964,        -0.812754,         8.714219, -0.008854,         0.000878, -0.003663,         0.010611
        0.193314,       105.355,        -0.812754,         8.725898, -0.009179,         0.000554, -0.003663,         0.010611
        0.211090,        99.5379,        -0.813079,         8.724925, -0.009503,         0.000230, -0.003663,         0.010611
        0.231088,        90.3969,        -0.812754,         8.714543, -0.009179,         0.000230, -0.003663,         0.010611
        0.248864,        80.0095,        -0.812754,         8.725250, -0.009179,         0.000878, -0.003663,         0.010935
        0.268862,        72.115,        -0.812754,         8.713894, -0.009503,         0.000554, -0.003339,         0.010611
        0.286638,        66.7135,        -0.812754,         8.725250, -0.009503,         0.000878, -0.003339,         0.011260
        0.306636,        55.0795,        -0.813079,         8.714219, -0.009503,         0.000230, -0.003988,         0.010611
        0.324412,        50.5091,        -0.812754,         8.726547, -0.009179,         0.000878, -0.003663,         0.010611
        0.342188,        46.9773,        -0.812430,         8.726223, -0.009179,         0.000878, -0.003339,         0.010611
        0.359964,        43.0301,        -0.812430,         8.727845, -0.009179,         0.000554, -0.003339,         0.010611
        0.373296,        35.9666,        -0.812430,         8.716165, -0.009503,         0.000554, -0.003663,         0.010611
        0.379962,        22.2552,        -0.812754,         8.717139, -0.009503,         0.000554, -0.004312,         0.010286